# x y intensity
140.0 394.0 4155.114370661792 55.21899685190437
586.0 82.0 3494.405082921849 49.34737396936774
583.0 137.0 2168.599191535586 39.68813045485075
397.0 208.0 2112.402595460592 40.833615538817206
520.0 223.0 1792.678768723284 46.23751677947993
145.0 199.0 1521.8867332791367 39.43816898398551
472.0 55.0 1333.7677507660471 35.13985264984391
202.0 105.0 1289.4444107015217 35.663897172082095
107.0 256.0 1252.4197076531773 32.17599880832752
443.0 590.0 1191.8395090467789 35.76893919588373
